#  E (eV)   dos(E)     Int dos(E) EFermi =    5.454 eV
 -14.116  0.0000E+00  0.0000E+00
 -14.016  0.5730E+00  0.2811E-01
 -13.916  0.6245E+00  0.9017E-01
 -13.816  0.6130E+00  0.1511E+00
 -13.716  0.6246E+00  0.2139E+00
 -13.616  0.6086E+00  0.2748E+00
 -13.516  0.6349E+00  0.3370E+00
 -13.416  0.6105E+00  0.3995E+00
 -13.316  0.6152E+00  0.4606E+00
 -13.216  0.6313E+00  0.5229E+00
 -13.116  0.6222E+00  0.5859E+00
 -13.016  0.6151E+00  0.6475E+00
 -12.916  0.6230E+00  0.7094E+00
 -12.816  0.6333E+00  0.7722E+00
 -12.716  0.6253E+00  0.8354E+00
 -12.616  0.6205E+00  0.8976E+00
 -12.516  0.6243E+00  0.9598E+00
 -12.416  0.6314E+00  0.1023E+01
 -12.316  0.6366E+00  0.1086E+01
 -12.216  0.6273E+00  0.1149E+01
 -12.116  0.6272E+00  0.1212E+01
 -12.016  0.6296E+00  0.1275E+01
 -11.916  0.6350E+00  0.1338E+01
 -11.816  0.6412E+00  0.1402E+01
 -11.716  0.6360E+00  0.1466E+01
 -11.616  0.6336E+00  0.1529E+01
 -11.516  0.6354E+00  0.1593E+01
 -11.416  0.6387E+00  0.1656E+01
 -11.316  0.6427E+00  0.1720E+01
 -11.216  0.6481E+00  0.1785E+01
 -11.116  0.6447E+00  0.1850E+01
 -11.016  0.6432E+00  0.1914E+01
 -10.916  0.6451E+00  0.1978E+01
 -10.816  0.6483E+00  0.2043E+01
 -10.716  0.6522E+00  0.2108E+01
 -10.616  0.6562E+00  0.2174E+01
 -10.516  0.6601E+00  0.2239E+01
 -10.416  0.6580E+00  0.2305E+01
 -10.316  0.6595E+00  0.2371E+01
 -10.216  0.6630E+00  0.2437E+01
 -10.116  0.6672E+00  0.2504E+01
 -10.016  0.6728E+00  0.2571E+01
  -9.916  0.6787E+00  0.2638E+01
  -9.816  0.6843E+00  0.2706E+01
  -9.716  0.6886E+00  0.2775E+01
  -9.616  0.6968E+00  0.2844E+01
  -9.516  0.7063E+00  0.2914E+01
  -9.416  0.7198E+00  0.2986E+01
  -9.316  0.7420E+00  0.3059E+01
  -9.216  0.7807E+00  0.3135E+01
  -9.116  0.8271E+00  0.3215E+01
  -9.016  0.1004E+01  0.3301E+01
  -8.916  0.1023E+01  0.3415E+01
  -8.816  0.7289E+00  0.3499E+01
  -8.716  0.9168E+00  0.3592E+01
  -8.616  0.5184E+00  0.3649E+01
  -8.516  0.4607E+00  0.3698E+01
  -8.416  0.4031E+00  0.3741E+01
  -8.316  0.4596E+00  0.3780E+01
  -8.216  0.3352E+00  0.3832E+01
  -8.116  0.2988E+00  0.3864E+01
  -8.016  0.2624E+00  0.3892E+01
  -7.916  0.2260E+00  0.3916E+01
  -7.816  0.1906E+00  0.3937E+01
  -7.716  0.2972E+00  0.3960E+01
  -7.616  0.9193E+00  0.4015E+01
  -7.516  0.4404E+00  0.4105E+01
  -7.416  0.5024E+00  0.4152E+01
  -7.316  0.1023E+01  0.4231E+01
  -7.216  0.6077E+00  0.4291E+01
  -7.116  0.6336E+00  0.4353E+01
  -7.016  0.6719E+00  0.4418E+01
  -6.916  0.1364E+01  0.4519E+01
  -6.816  0.9120E+00  0.4640E+01
  -6.716  0.8489E+00  0.4728E+01
  -6.616  0.8079E+00  0.4811E+01
  -6.516  0.7693E+00  0.4890E+01
  -6.416  0.7047E+00  0.4965E+01
  -6.316  0.6807E+00  0.5033E+01
  -6.216  0.6718E+00  0.5101E+01
  -6.116  0.6630E+00  0.5168E+01
  -6.016  0.6447E+00  0.5233E+01
  -5.916  0.6240E+00  0.5296E+01
  -5.816  0.6033E+00  0.5358E+01
  -5.716  0.5858E+00  0.5417E+01
  -5.616  0.5789E+00  0.5475E+01
  -5.516  0.5721E+00  0.5533E+01
  -5.416  0.5653E+00  0.5590E+01
  -5.316  0.5580E+00  0.5646E+01
  -5.216  0.5470E+00  0.5701E+01
  -5.116  0.5166E+00  0.5754E+01
  -5.016  0.6574E+00  0.5817E+01
  -4.916  0.6923E+00  0.5884E+01
  -4.816  0.7269E+00  0.5955E+01
  -4.716  0.7588E+00  0.6030E+01
  -4.616  0.7447E+00  0.6106E+01
  -4.516  0.7342E+00  0.6179E+01
  -4.416  0.7292E+00  0.6252E+01
  -4.316  0.7349E+00  0.6325E+01
  -4.216  0.7394E+00  0.6399E+01
  -4.116  0.7458E+00  0.6473E+01
  -4.016  0.7621E+00  0.6548E+01
  -3.916  0.7780E+00  0.6625E+01
  -3.816  0.7831E+00  0.6703E+01
  -3.716  0.7695E+00  0.6781E+01
  -3.616  0.7730E+00  0.6858E+01
  -3.516  0.7765E+00  0.6936E+01
  -3.416  0.8001E+00  0.7014E+01
  -3.316  0.8077E+00  0.7094E+01
  -3.216  0.8152E+00  0.7175E+01
  -3.116  0.8177E+00  0.7257E+01
  -3.016  0.8275E+00  0.7339E+01
  -2.916  0.8311E+00  0.7422E+01
  -2.816  0.8444E+00  0.7506E+01
  -2.716  0.8604E+00  0.7591E+01
  -2.616  0.8763E+00  0.7678E+01
  -2.516  0.9786E+00  0.7769E+01
  -2.416  0.1045E+01  0.7870E+01
  -2.316  0.1093E+01  0.7977E+01
  -2.216  0.1174E+01  0.8091E+01
  -2.116  0.1225E+01  0.8211E+01
  -2.016  0.1300E+01  0.8338E+01
  -1.916  0.1372E+01  0.8472E+01
  -1.816  0.1448E+01  0.8613E+01
  -1.716  0.1575E+01  0.8763E+01
  -1.616  0.1615E+01  0.8922E+01
  -1.516  0.1751E+01  0.9091E+01
  -1.416  0.2092E+01  0.9285E+01
  -1.316  0.1885E+01  0.9485E+01
  -1.216  0.1710E+01  0.9665E+01
  -1.116  0.2016E+01  0.9844E+01
  -1.016  0.2288E+01  0.1006E+02
  -0.916  0.1950E+01  0.1027E+02
  -0.816  0.1859E+01  0.1046E+02
  -0.716  0.1887E+01  0.1064E+02
  -0.616  0.1656E+01  0.1081E+02
  -0.516  0.1642E+01  0.1098E+02
  -0.416  0.1723E+01  0.1115E+02
  -0.316  0.1593E+01  0.1131E+02
  -0.216  0.1168E+01  0.1146E+02
  -0.116  0.9820E+00  0.1157E+02
  -0.016  0.1151E+01  0.1167E+02
   0.084  0.1336E+01  0.1180E+02
   0.184  0.1652E+01  0.1195E+02
   0.284  0.1517E+01  0.1211E+02
   0.384  0.1367E+01  0.1225E+02
   0.484  0.1291E+01  0.1238E+02
   0.584  0.1243E+01  0.1251E+02
   0.684  0.1245E+01  0.1263E+02
   0.784  0.1227E+01  0.1276E+02
   0.884  0.1207E+01  0.1288E+02
   0.984  0.1185E+01  0.1300E+02
   1.084  0.1166E+01  0.1312E+02
   1.184  0.1164E+01  0.1323E+02
   1.284  0.1170E+01  0.1335E+02
   1.384  0.1150E+01  0.1347E+02
   1.484  0.1129E+01  0.1358E+02
   1.584  0.1116E+01  0.1369E+02
   1.684  0.1153E+01  0.1381E+02
   1.784  0.1139E+01  0.1392E+02
   1.884  0.1113E+01  0.1403E+02
   1.984  0.1093E+01  0.1414E+02
   2.084  0.1128E+01  0.1425E+02
   2.184  0.1182E+01  0.1437E+02
   2.284  0.1188E+01  0.1448E+02
   2.384  0.7069E+00  0.1457E+02
   2.484  0.7308E+00  0.1464E+02
   2.584  0.7599E+00  0.1472E+02
   2.684  0.8032E+00  0.1480E+02
   2.784  0.8664E+00  0.1488E+02
   2.884  0.1075E+01  0.1497E+02
   2.984  0.1049E+01  0.1508E+02
   3.084  0.1038E+01  0.1518E+02
   3.184  0.1099E+01  0.1529E+02
   3.284  0.7899E+00  0.1538E+02
   3.384  0.6752E+00  0.1545E+02
   3.484  0.6181E+00  0.1552E+02
   3.584  0.5399E+00  0.1558E+02
   3.684  0.4967E+00  0.1563E+02
   3.784  0.4487E+00  0.1567E+02
   3.884  0.4122E+00  0.1572E+02
   3.984  0.3699E+00  0.1576E+02
   4.084  0.3423E+00  0.1579E+02
   4.184  0.3094E+00  0.1582E+02
   4.284  0.2745E+00  0.1585E+02
   4.384  0.2531E+00  0.1588E+02
   4.484  0.2237E+00  0.1590E+02
   4.584  0.1947E+00  0.1592E+02
   4.684  0.1755E+00  0.1594E+02
   4.784  0.1648E+00  0.1596E+02
   4.884  0.1350E+00  0.1598E+02
   4.984  0.9365E-01  0.1599E+02
   5.084  0.6206E-01  0.1600E+02
   5.184  0.0000E+00  0.1600E+02
   5.284  0.0000E+00  0.1600E+02
   5.384  0.0000E+00  0.1600E+02
   5.484  0.0000E+00  0.1600E+02
   5.584  0.0000E+00  0.1600E+02
   5.684  0.0000E+00  0.1600E+02
   5.784  0.6202E-01  0.1600E+02
   5.884  0.9929E-01  0.1601E+02
   5.984  0.1582E+00  0.1602E+02
   6.084  0.1744E+00  0.1604E+02
   6.184  0.1756E+00  0.1606E+02
   6.284  0.2126E+00  0.1608E+02
   6.384  0.2572E+00  0.1610E+02
   6.484  0.3018E+00  0.1613E+02
   6.584  0.3231E+00  0.1616E+02
   6.684  0.4285E+00  0.1620E+02
   6.784  0.4624E+00  0.1624E+02
   6.884  0.5336E+00  0.1629E+02
   6.984  0.9091E+00  0.1636E+02
   7.084  0.1124E+01  0.1647E+02
   7.184  0.1116E+01  0.1658E+02
   7.284  0.1044E+01  0.1669E+02
   7.384  0.1025E+01  0.1679E+02
   7.484  0.8344E+00  0.1688E+02
   7.584  0.7599E+00  0.1696E+02
   7.684  0.7082E+00  0.1704E+02
   7.784  0.6727E+00  0.1710E+02
   7.884  0.6424E+00  0.1717E+02
   7.984  0.6159E+00  0.1723E+02
   8.084  0.5917E+00  0.1729E+02
   8.184  0.5681E+00  0.1735E+02
   8.284  0.5492E+00  0.1741E+02
   8.384  0.5340E+00  0.1746E+02
   8.484  0.5227E+00  0.1751E+02
   8.584  0.5120E+00  0.1757E+02
   8.684  0.5018E+00  0.1762E+02
   8.784  0.4916E+00  0.1767E+02
   8.884  0.5132E+00  0.1772E+02
   8.984  0.5333E+00  0.1777E+02
   9.084  0.5450E+00  0.1782E+02
   9.184  0.5507E+00  0.1788E+02
   9.284  0.5586E+00  0.1793E+02
   9.384  0.5644E+00  0.1799E+02
   9.484  0.5729E+00  0.1805E+02
   9.584  0.5793E+00  0.1810E+02
   9.684  0.5826E+00  0.1816E+02
   9.784  0.5871E+00  0.1822E+02
   9.884  0.5911E+00  0.1828E+02
   9.984  0.5954E+00  0.1834E+02
  10.084  0.5951E+00  0.1840E+02
  10.184  0.5962E+00  0.1846E+02
  10.284  0.6004E+00  0.1852E+02
  10.384  0.6062E+00  0.1858E+02
  10.484  0.6127E+00  0.1864E+02
  10.584  0.6201E+00  0.1870E+02
  10.684  0.6298E+00  0.1876E+02
  10.784  0.6427E+00  0.1883E+02
  10.884  0.6620E+00  0.1889E+02
  10.984  0.7215E+00  0.1896E+02
  11.084  0.7833E+00  0.1904E+02
  11.184  0.7624E+00  0.1911E+02
  11.284  0.6391E+00  0.1918E+02
  11.384  0.5736E+00  0.1924E+02
  11.484  0.5282E+00  0.1930E+02
  11.584  0.5018E+00  0.1935E+02
  11.684  0.5095E+00  0.1940E+02
  11.784  0.5052E+00  0.1945E+02
  11.884  0.5532E+00  0.1950E+02
  11.984  0.7531E+00  0.1957E+02
  12.084  0.7898E+00  0.1965E+02
  12.184  0.7407E+00  0.1972E+02
  12.284  0.7016E+00  0.1980E+02
  12.384  0.6924E+00  0.1987E+02
  12.484  0.7056E+00  0.1994E+02
  12.584  0.7180E+00  0.2001E+02
  12.684  0.7303E+00  0.2008E+02
  12.784  0.7861E+00  0.2015E+02
  12.884  0.1391E+01  0.2026E+02
  12.984  0.1984E+01  0.2043E+02
  13.084  0.2001E+01  0.2064E+02
  13.184  0.1741E+01  0.2082E+02
  13.284  0.1658E+01  0.2099E+02
  13.384  0.1812E+01  0.2116E+02
  13.484  0.1940E+01  0.2135E+02
  13.584  0.2079E+01  0.2155E+02
  13.684  0.2114E+01  0.2177E+02
  13.784  0.3367E+01  0.2199E+02
  13.884  0.4059E+01  0.2238E+02
  13.984  0.2679E+01  0.2274E+02
  14.084  0.2482E+01  0.2299E+02
  14.184  0.2095E+01  0.2322E+02
  14.284  0.1798E+01  0.2341E+02
  14.384  0.1913E+01  0.2359E+02
  14.484  0.1960E+01  0.2379E+02
  14.584  0.1888E+01  0.2398E+02
  14.684  0.1838E+01  0.2417E+02
  14.784  0.1785E+01  0.2435E+02
  14.884  0.1863E+01  0.2453E+02
  14.984  0.2255E+01  0.2473E+02
  15.084  0.1601E+01  0.2495E+02
  15.184  0.1401E+01  0.2510E+02
  15.284  0.1281E+01  0.2523E+02
  15.384  0.1175E+01  0.2535E+02
  15.484  0.1140E+01  0.2547E+02
  15.584  0.1440E+01  0.2559E+02
  15.684  0.1966E+01  0.2576E+02
  15.784  0.2104E+01  0.2597E+02
  15.884  0.2461E+01  0.2619E+02
  15.984  0.2269E+01  0.2643E+02
  16.084  0.2170E+01  0.2665E+02
  16.184  0.1929E+01  0.2686E+02
  16.284  0.1887E+01  0.2705E+02
  16.384  0.1716E+01  0.2723E+02
  16.484  0.1434E+01  0.2739E+02
  16.584  0.1333E+01  0.2753E+02
  16.684  0.1395E+01  0.2766E+02
  16.784  0.1457E+01  0.2780E+02
  16.884  0.1508E+01  0.2795E+02
  16.984  0.1630E+01  0.2811E+02
  17.084  0.1633E+01  0.2826E+02
  17.184  0.1446E+01  0.2843E+02
  17.284  0.1057E+01  0.2854E+02
  17.384  0.1027E+01  0.2865E+02
  17.484  0.9923E+00  0.2875E+02
  17.584  0.9473E+00  0.2885E+02
  17.684  0.1031E+01  0.2894E+02
  17.784  0.1316E+01  0.2907E+02
  17.884  0.1559E+01  0.2921E+02
  17.984  0.1665E+01  0.2938E+02
  18.084  0.1648E+01  0.2955E+02
  18.184  0.1628E+01  0.2971E+02
  18.284  0.1608E+01  0.2988E+02
  18.384  0.1616E+01  0.3003E+02
  18.484  0.1660E+01  0.3020E+02
  18.584  0.1694E+01  0.3037E+02
  18.684  0.1444E+01  0.3053E+02
  18.784  0.1306E+01  0.3067E+02
  18.884  0.1150E+01  0.3079E+02
  18.984  0.1048E+01  0.3090E+02
  19.084  0.9771E+00  0.3100E+02
  19.184  0.9131E+00  0.3109E+02
  19.284  0.8580E+00  0.3118E+02
  19.384  0.8104E+00  0.3127E+02
  19.484  0.7150E+00  0.3134E+02
  19.584  0.6711E+00  0.3141E+02
  19.684  0.6257E+00  0.3148E+02
  19.784  0.5847E+00  0.3154E+02
  19.884  0.5440E+00  0.3159E+02
  19.984  0.5031E+00  0.3165E+02
  20.084  0.4661E+00  0.3169E+02
  20.184  0.4299E+00  0.3174E+02
  20.284  0.3907E+00  0.3178E+02
  20.384  0.3506E+00  0.3182E+02
  20.484  0.3099E+00  0.3185E+02
  20.584  0.2705E+00  0.3188E+02
  20.684  0.2393E+00  0.3190E+02
  20.784  0.2114E+00  0.3193E+02
  20.884  0.1850E+00  0.3195E+02
  20.984  0.1610E+00  0.3196E+02
  21.084  0.1585E+00  0.3198E+02
  21.184  0.8243E-01  0.3199E+02
  21.284  0.3254E-01  0.3200E+02
  21.384  0.7725E-02  0.3200E+02
